File: dataset_example/processed_data/ForceRelax_example/data/data_1_Measurements/GMM Fitting Results/data_1_7_GMM Fit.csv
Index [#],Phase [#],Displacement [um],Time [s],Pos X [um],Pos Y [um],Pos Z [um],Piezo X [um],Piezo Y [um],Piezo Z [um],Force A [uN],Force B [uN],Gripper [V],Voltage A [V],Voltage B [V],Temperature [oC],Sample Displacement [um],Filtered time [uN},Filtered force [uN],SG Force [uN],Est Force 2nd derivative,Filtered displacement [um],Sel Time [s],Sel Force [N],Sel Modulus Uncorrected [Pa],Sel Modulus Corrected [Pa],Sel Modulus GMM Fit [Pa],Sel Time Normalised [s m-2],Sel Force Normalised []
6.0,2.0,0.00573,15541.3,-1357.914,77.84,-27142.297,0.00015,-0.00036,-0.08847,-0.10397,,0.0,-0.00152,-0.00452,22.88045,-19.73131,15541.3,-0.10397,-0.100141,0.000301231,-0.08847,0.0,0.000288004,136441,136441,137822,0.0,1.0
6.0,2.0,4.96574,15541.5,-1357.91,77.83915,-27142.3,0.00023,2e-05,4.87184,0.36836,,0.0,-0.00154,-0.00454,22.88056,-14.7713,15541.5,0.36836,0.388724,-0.00226737,4.87184,0.255,0.000250191,118528,118528,118646,3.07975e+16,0.431768
6.0,2.0,11.55488,15541.8,-1357.91,77.84,-27142.303,-1e-05,-0.00016,11.46105,0.48068,,0.0,-0.00152,-0.00453,22.88076,-8.18216,15541.8,0.48068,0.487521,-2.47866e-05,11.46105,0.51,0.000242999,115120,115120,115111,6.15951e+16,0.323682
6.0,2.0,18.04022,15542.1,-1357.915,77.8389,-27142.307,-0.00013,-0.0002,17.94663,0.8495,,0.0,-0.00155,-0.00451,22.88055,-1.69682,15542.1,0.8495,0.845636,-1.51176e-05,17.94663,0.765,0.000240335,113858,113858,113746,9.23926e+16,0.283651
6.0,2.0,24.47215,15542.3,-1357.92,77.839,-27142.308,-0.00025,0.00023,24.37875,1.15353,,0.0,-0.00154,-0.00449,22.88075,4.7351,15542.3,1.15353,1.15703,-0.000116224,24.37875,1.02,0.000237744,112631,112631,112844,1.2319e+17,0.244719
6.0,2.0,30.86505,15542.6,-1357.915,77.8382,-27142.3,-0.00032,0.00017,30.79712,40.73008,,0.0,-0.00148,-0.00455,22.8806,11.12801,15542.6,40.73008,40.7177,0.00209513,30.79712,1.275,0.0002369606,112260,112260,112140,1.53988e+17,0.23294
6.0,2.0,37.24725,15542.8,-1357.914,77.83901,-27142.312,-3e-05,-0.00012,37.23217,122.842,,0.0,-0.00145,-0.0046,22.88088,17.51021,15542.8,122.842,122.769,0.00372722,37.23217,1.53,0.000235213,111432,111432,111566,1.84785e+17,0.206679
6.0,2.0,43.613,15543.1,-1357.915,77.839,-27142.3,-5e-05,0.00014,43.65492,211.426,,0.0,-0.00154,-0.00457,22.88082,23.87596,15543.1,211.426,211.612,0.0021821,43.65492,1.785,0.000234727,111201,111201,111086,2.15583e+17,0.199368
6.0,3.0,49.57984,15543.3,-1357.91,77.83901,-27142.314,0.00013,-0.0002,49.66868,284.341,,0.0,-0.00151,-0.00455,22.88078,29.8428,,,,,,2.04,0.000233406,110576,110576,110675,2.4638e+17,0.179521
6.0,3.0,50.06954,15543.6,-1357.91,77.8391,-27142.3,-9e-05,-1e-05,50.13734,251.647,,0.0,-0.0015,-0.00453,22.88098,30.3325,,,,,,2.295,0.000233053,110409,110409,110316,2.77178e+17,0.174219
6.0,3.0,50.03048,15543.8,-1357.915,77.839,-27142.316,-3e-05,0.00063,50.09457,245.873,,0.0,-0.00149,-0.00455,22.881,30.29344,,,,,,2.55,0.000232357,110079,110079,109997,3.07975e+17,0.163759
6.0,3.0,50.01811,15544.1,-1357.915,77.84,-27142.316,0.00013,-0.00033,50.08031,242.938,,0.0,-0.00147,-0.00453,22.88089,30.28107,,,,,,2.805,0.000231373,109612,109612,109711,3.38773e+17,0.148966
6.0,3.0,50.01275,15544.3,-1357.915,77.84,-27142.317,-2e-05,0.0003,50.07362,240.88,,0.0,-0.00152,-0.00454,22.88084,30.27571,,,,,,3.06,0.000231339,109597,109597,109449,3.6957e+17,0.148464
6.0,3.0,50.01106,15544.6,-1357.915,77.84,-27142.317,0.00023,1e-05,50.07122,239.76,,0.0,-0.00148,-0.00455,22.88102,30.27402,,,,,,3.315,0.000230297,109103,109103,109209,4.00368e+17,0.132796
6.0,3.0,50.00867,15544.9,-1357.914,77.83999,-27142.318,-0.0001,-0.00039,50.06789,238.3091,,0.0,-0.00153,-0.00453,22.88091,30.27163,,,,,,3.57,0.00023039,109147,109147,108986,4.31166e+17,0.134206
6.0,3.0,50.00836,15545.1,-1357.915,77.83985,-27142.3,0.00033,-0.00023,50.06719,237.709,,0.0,-0.00148,-0.00454,22.88115,30.27132,,,,,,3.825,0.00022941,108683,108683,108778,4.61963e+17,0.119469
6.0,3.0,50.00666,15545.4,-1357.915,77.84,-27142.319,4e-05,-0.00021,50.06467,236.437,,0.0,-0.00148,-0.00453,22.88111,30.26962,,,,,,4.08,0.000229373,108665,108665,108583,4.92761e+17,0.118921
6.0,3.0,50.007,15545.6,-1357.915,77.8391,-27142.3,7e-05,-6e-05,50.06486,236.193,,0.0,-0.0015,-0.00455,22.88103,30.26996,,,,,,4.335,0.000228759,108374,108374,108399,5.23558e+17,0.109696
6.0,3.0,50.00591,15545.9,-1357.915,77.83901,-27142.319,-0.00019,0.0001,50.06308,235.129,,0.0,-0.00149,-0.00458,22.88112,30.26887,,,,,,4.59,0.0002283545,108183,108183,108226,5.54356e+17,0.10361
6.0,3.0,50.00532,15546.1,-1357.915,77.83815,-27142.319,-0.00025,0.00072,50.06217,234.63,,0.0,-0.00146,-0.00458,22.88104,30.26828,,,,,,4.845,0.000228236,108127,108127,108062,5.85153e+17,0.101836
6.0,3.0,50.00548,15546.4,-1357.91,77.84,-27142.32,-0.00025,0.00015,50.062,234.127,,0.0,-0.00146,-0.00457,22.8811,30.26844,,,,,,5.1,0.000227489,107773,107773,107907,6.15951e+17,0.0906107
6.0,3.0,50.00461,15546.6,-1357.915,77.83985,-27142.3,-0.0,0.00039,50.06078,233.567,,0.0,-0.00145,-0.00458,22.8811,30.26757,,,,,,5.355,0.000227728,107886,107886,107760,6.46748e+17,0.0941936
6.0,3.0,50.00518,15546.9,-1357.91,77.84,-27142.32,0.00014,0.0001,50.06125,233.407,,0.0,-0.00144,-0.00451,22.88113,30.26814,,,,,,5.61,0.0002268581,107474,107474,107620,6.77546e+17,0.0811227
6.0,3.0,50.00395,15547.2,-1357.915,77.84,-27142.3,0.00017,-0.00028,50.05942,232.471,,0.0,-0.00144,-0.00452,22.88116,30.26691,,,,,,5.865,0.00022705,107565,107565,107488,7.08343e+17,0.0840053
6.0,3.0,50.00486,15547.4,-1357.91,77.839,-27142.321,-4e-05,0.00022,50.06044,232.663,,0.0,-0.00151,-0.00456,22.88133,30.26782,,,,,,6.12,0.000226333,107225,107225,107362,7.39141e+17,0.0732333
6.0,3.0,50.00381,15547.7,-1357.915,77.84,-27142.3,0.00014,-0.00014,50.05876,231.669,,0.0,-0.00152,-0.00454,22.88151,30.26677,,,,,,6.375,0.000226419,107266,107266,107242,7.69938e+17,0.0745278
6.0,3.0,50.00422,15547.9,-1357.92,77.84,-27142.319,-8e-05,0.00017,50.05919,231.7051,,0.0,-0.00148,-0.00458,22.88124,30.26718,,,,,,6.63,0.000226179,107152,107152,107129,8.00736e+17,0.0709103
6.0,3.0,50.00389,15548.2,-1357.91,77.83985,-27142.321,-1e-05,0.00014,50.05846,231.094,,0.0,-0.00146,-0.00456,22.88137,30.26685,,,,,,6.885,0.000225653,106903,106903,107021,8.31534e+17,0.0630181
6.0,3.0,50.00344,15548.4,-1357.915,77.839,-27142.321,0.00021,-0.0,50.05782,230.792,,0.0,-0.00154,-0.00459,22.88134,30.2664,,,,,,7.14,0.000225815,106980,106980,106918,8.62331e+17,0.0654477
6.0,3.0,50.00411,15548.7,-1357.91,77.8391,-27142.322,0.00011,4e-05,50.05845,230.722,,0.0,-0.00158,-0.00453,22.88141,30.26707,,,,,,7.395,0.000225179,106678,106678,106820,8.93129e+17,0.0558921
6.0,3.0,50.00312,15548.9,-1357.91,77.839,-27142.322,-6e-05,-0.00062,50.05695,229.947,,0.0,-0.00151,-0.00456,22.88147,30.26607,,,,,,7.65,0.000225417,106791,106791,106727,9.23926e+17,0.0594679
6.0,3.0,50.00407,15549.2,-1357.91,77.84,-27142.3,0.00027,0.00082,50.05804,230.148,,0.0,-0.00146,-0.00459,22.88149,30.26703,,,,,,7.905,0.000224861,106527,106527,106639,9.54724e+17,0.0511039
6.0,3.0,50.00294,15549.4,-1357.914,77.839,-27142.324,-0.00029,-0.0004,50.05638,229.33,,0.0,-0.00148,-0.00458,22.88145,30.2659,,,,,,8.16,0.000225013,106599,106599,106555,9.85521e+17,0.053388
6.0,3.0,50.00388,15549.7,-1357.91,77.83915,-27142.322,-0.00014,0.00035,50.05761,229.782,,0.0,-0.00156,-0.00452,22.88153,30.26684,,,,,,8.415,0.000224774,106487,106487,106475,1.01632e+18,0.0498094
6.0,3.0,50.00288,15550,-1357.915,77.83901,-27142.323,-0.00059,0.0001,50.05606,228.927,,0.0,-0.00151,-0.00454,22.88163,30.26584,,,,,,8.67,0.00022452,106366,106366,106399,1.04712e+18,0.045992
6.0,3.0,50.0032,15550.2,-1357.91,77.83985,-27142.3,0.00027,-2e-05,50.05643,228.9959,,0.0,-0.00147,-0.00458,22.88156,30.26616,,,,,,8.925,0.000224702,106452,106452,106327,1.07791e+18,0.0487162
6.0,3.0,50.00355,15550.5,-1357.915,77.84,-27142.323,0.00024,-0.00011,50.05665,228.791,,0.0,-0.00149,-0.00452,22.88153,30.26651,,,,,,9.18,0.000224098,106166,106166,106258,1.10871e+18,0.0396465
6.0,3.0,50.00266,15550.7,-1357.91,77.8391,-27142.3,8e-05,5e-05,50.05544,228.311,,0.0,-0.00145,-0.00452,22.88171,30.26562,,,,,,9.435,0.000224544,106377,106377,106192,1.13951e+18,0.0463421
6.0,3.0,50.00343,15551,-1357.91,77.84,-27142.324,0.00055,-0.00042,50.05639,228.583,,0.0,-0.00153,-0.00455,22.88154,30.26639,,,,,,,,,,,,
6.0,3.0,50.00239,15551.2,-1357.91,77.84,-27142.324,-0.0001,-0.00044,50.05488,227.84,,0.0,-0.00153,-0.00459,22.88161,30.26535,,,,,,,,,,,,
6.0,3.0,50.00336,15551.5,-1357.915,77.84,-27142.323,0.0,0.00064,50.05615,228.311,,0.0,-0.00153,-0.00459,22.88167,30.26632,,,,,,,,,,,,
6.0,3.0,50.0027,15551.7,-1357.92,77.83985,-27142.3,-0.00041,0.00038,50.05504,227.633,,0.0,-0.00149,-0.00458,22.88174,30.26566,,,,,,,,,,,,
6.0,3.0,50.00308,15552,-1357.91,77.83999,-27142.322,3e-05,-9e-05,50.05563,227.941,,0.0,-0.00151,-0.00452,22.88173,30.26604,,,,,,,,,,,,
6.0,3.0,50.00311,15552.3,-1357.92,77.839,-27142.3,-0.00029,-0.00033,50.05545,227.629,,0.0,-0.00149,-0.00452,22.88166,30.26607,,,,,,,,,,,,
6.0,3.0,50.00249,15552.5,-1357.92,77.84099,-27142.322,-9e-05,4e-05,50.05463,227.303,,0.0,-0.00152,-0.00458,22.88194,30.26545,,,,,,,,,,,,
6.0,3.0,50.00336,15552.8,-1357.92,77.8399,-27142.323,-8e-05,4e-05,50.05573,227.661,,0.0,-0.00151,-0.00454,22.8817,30.26632,,,,,,,,,,,,
6.0,3.0,50.00224,15553,-1357.91,77.839,-27142.323,-2e-05,0.00016,50.05416,226.9667,,0.0,-0.00152,-0.00461,22.88184,30.2652,,,,,,,,,,,,
6.0,3.0,50.00366,15553.3,-1357.915,77.839,-27142.322,-0.0,-0.00014,50.05596,227.566,,0.0,-0.00148,-0.00455,22.88183,30.26662,,,,,,,,,,,,
6.0,4.0,45.66647,15553.5,-1357.91,77.839,-27142.321,-9e-05,0.0002,45.62057,74.96237,,0.0,-0.00148,-0.00459,22.88194,25.92943,,,,,,,,,,,,
6.0,4.0,39.02733,15553.8,-1357.92,77.83815,-27142.3,2e-05,0.00046,38.95576,35.07822,,0.0,-0.00146,-0.00455,22.88178,19.29029,,,,,,,,,,,,
6.0,4.0,32.46606,15554,-1357.914,77.84098,-27142.322,-0.00026,0.00018,32.3798,12.24908,,0.0,-0.0015,-0.00459,22.88203,12.72902,,,,,,,,,,,,
6.0,4.0,25.96557,15554.3,-1357.91,77.839,-27142.3,-5e-05,0.0005,25.87075,-1.06693,,0.0,-0.0015,-0.00457,22.88201,6.22853,,,,,,,,,,,,
6.0,4.0,19.49638,15554.5,-1357.915,77.839,-27142.321,-7e-05,-0.00053,19.40113,-1.74076,,0.0,-0.0015,-0.00457,22.88198,-0.24066,,,,,,,,,,,,
6.0,4.0,13.04824,15554.8,-1357.914,77.83985,-27142.321,0.00011,0.00056,12.95255,-2.4178,,0.0,-0.00153,-0.00453,22.88204,-6.6888,,,,,,,,,,,,
6.0,4.0,6.62041,15555.1,-1357.915,77.839,-27142.321,-0.0,0.00083,6.5243,-3.07263,,0.0,-0.0015,-0.00453,22.88205,-13.11663,,,,,,,,,,,,
6.0,4.0,0.42186,15555.3,-1357.91,77.8399,-27142.322,-0.00031,0.00041,0.32533,-3.70951,,0.0,-0.00152,-0.00449,22.88222,-19.31518,,,,,,,,,,,,
6.0,4.0,0.21084,15555.3,-1357.914,77.83829,-27142.3,0.00032,0.0002,0.11431,-3.7223,,0.0,-0.00148,-0.00451,22.88207,-19.5262,,,,,,,,,,,,