File: dataset_example/processed_data/ForceRelax_example/data/data_1_Measurements/GMM Fitting Results/data_1_3_GMM Fit.csv
Index [#],Phase [#],Displacement [um],Time [s],Pos X [um],Pos Y [um],Pos Z [um],Piezo X [um],Piezo Y [um],Piezo Z [um],Force A [uN],Force B [uN],Gripper [V],Voltage A [V],Voltage B [V],Temperature [oC],Sample Displacement [um],Filtered time [uN},Filtered force [uN],SG Force [uN],Est Force 2nd derivative,Filtered displacement [um],Sel Time [s],Sel Force [N],Sel Modulus Uncorrected [Pa],Sel Modulus Corrected [Pa],Sel Modulus GMM Fit [Pa],Sel Time Normalised [s m-2],Sel Force Normalised []
2.0,2.0,0.00522,15454.5,-357.906,-922.164,-27141.281,0.00014,-0.00047,-0.02797,-0.0859,,0.0,-0.00146,-0.00454,22.87088,6.46483,15454.5,-0.0859,-0.0852171,0.000369154,-0.02797,0.0,0.000278879,128807,128807,130127,0.0,1.0
2.0,2.0,4.95589,15454.8,-357.9061,-922.164,-27141.284,-0.00011,0.00015,4.92299,0.3769,,0.0,-0.00149,-0.00454,22.87099,11.4155,15454.8,0.3769,0.378322,-2.50142e-05,4.92299,0.255,0.0002430188,112244,112244,112292,2.97727e+16,0.449466
2.0,2.0,11.54733,15455,-357.906,-922.164,-27141.286,0.0,0.0,11.51479,0.91607,,0.0,-0.00156,-0.00456,22.87107,18.00695,15455,0.91607,0.914285,-1.17925e-05,11.51479,0.51,0.000235781,108901,108901,108986,5.95453e+16,0.338352
2.0,2.0,18.0317,15455.3,-357.906,-922.164,-27141.29,-9e-05,-0.00036,17.99945,1.37869,,0.0,-0.00146,-0.00453,22.87092,24.49131,15455.3,1.37869,1.38177,-3.05236e-05,17.99945,0.765,0.000233441,107821,107821,107716,8.9318e+16,0.302433
2.0,2.0,24.46554,15455.5,-357.908,-922.164,-27141.291,7e-05,-0.00034,24.4336,1.85473,,0.0,-0.00145,-0.00455,22.87115,30.92515,15455.5,1.85473,1.84868,0.000474752,24.4336,1.02,0.000230988,106687,106687,106874,1.19091e+17,0.264764
2.0,2.0,30.85871,15455.8,-357.907,-922.163,-27141.292,9e-05,-0.00041,30.85285,42.37671,,0.0,-0.00149,-0.00454,22.87111,37.31833,15455.8,42.37671,42.4396,0.00172847,30.85285,1.275,0.000230118,106286,106286,106216,1.48863e+17,0.25141
2.0,2.0,37.24243,15456,-357.906,-922.164,-27141.294,0.00022,6e-05,37.28681,120.462,,0.0,-0.0015,-0.00457,22.87111,43.70204,15456,120.462,120.287,0.00348979,37.28681,1.53,0.000228755,105656,105656,105682,1.78636e+17,0.230477
2.0,2.0,43.60886,15456.3,-357.907,-922.164,-27141.296,0.00011,-0.00038,43.70783,205.279,,0.0,-0.00146,-0.00454,22.87124,50.06847,15456.3,205.279,205.513,0.00171642,43.70783,1.785,0.000227886,105255,105255,105241,2.08409e+17,0.217147
2.0,3.0,49.58298,15456.6,-357.906,-922.164,-27141.296,-7e-05,0.00021,49.72728,275.723,,0.0,-0.00149,-0.00449,22.87115,56.04259,,,,,,2.04,0.000227164,104921,104921,104870,2.38181e+17,0.20606
2.0,3.0,50.07142,15456.8,-357.906,-922.163,-27141.297,-0.00035,8e-05,50.1956,244.46,,0.0,-0.00146,-0.00445,22.87115,56.53103,,,,,,2.295,0.000226324,104533,104533,104554,2.67954e+17,0.193159
2.0,3.0,50.03106,15457.1,-357.907,-922.163,-27141.297,2e-05,7e-05,50.15159,238.789,,0.0,-0.00145,-0.00454,22.87139,56.49067,,,,,,2.55,0.000225847,104313,104313,104280,2.97727e+17,0.185834
2.0,3.0,50.01878,15457.3,-357.906,-922.164,-27141.298,-0.00023,0.00019,50.13766,236.219,,0.0,-0.00144,-0.00449,22.87111,56.47839,,,,,,2.805,0.000225082,103960,103960,104038,3.27499e+17,0.174101
2.0,3.0,50.01314,15457.6,-357.906,-922.164,-27141.298,5e-05,-0.00018,50.13067,234.13,,0.0,-0.00151,-0.00455,22.87134,56.47275,,,,,,3.06,0.000225083,103960,103960,103823,3.57272e+17,0.174109
2.0,3.0,50.01161,15457.8,-357.9079,-922.165,-27141.298,-0.00015,0.00045,50.12857,233.236,,0.0,-0.00149,-0.00454,22.8713,56.47123,,,,,,3.315,0.000224113,103512,103512,103628,3.87045e+17,0.159223
2.0,3.0,50.00908,15458.1,-357.906,-922.163,-27141.299,-0.00056,-0.00012,50.12504,231.675,,0.0,-0.00145,-0.00456,22.87142,56.4687,,,,,,3.57,0.000224194,103550,103550,103449,4.16817e+17,0.160464
2.0,3.0,50.00864,15458.3,-357.9069,-922.164,-27141.3,-0.00029,1e-05,50.12429,231.2,,0.0,-0.00143,-0.00453,22.87142,56.46825,,,,,,3.825,0.000223513,103235,103235,103284,4.4659e+17,0.150001
2.0,3.0,50.00697,15458.6,-357.907,-922.163,-27141.299,-0.0003,-0.00024,50.12179,229.914,,0.0,-0.00147,-0.00454,22.87144,56.46658,,,,,,4.08,0.00022343,103197,103197,103129,4.76363e+17,0.148733
2.0,3.0,50.00721,15458.9,-357.9069,-922.164,-27141.3,-0.00036,0.00062,50.12194,229.765,,0.0,-0.00146,-0.00452,22.87147,56.46682,,,,,,4.335,0.000222997,102997,102997,102984,5.06135e+17,0.142092
2.0,3.0,50.00666,15459.1,-357.905,-922.164,-27141.3,-0.00048,0.00018,50.12083,228.912,,0.0,-0.00149,-0.00457,22.87155,56.46627,,,,,,4.59,0.000222508,102771,102771,102847,5.35908e+17,0.134574
2.0,3.0,50.00579,15459.4,-357.905,-922.164,-27141.301,-6e-05,9e-05,50.11969,228.482,,0.0,-0.00146,-0.00454,22.87154,56.4654,,,,,,4.845,0.000222514,102774,102774,102716,5.6568e+17,0.134677
2.0,3.0,50.00599,15459.6,-357.905,-922.165,-27141.3,-0.00011,0.00028,50.11964,228.09,,0.0,-0.00149,-0.00453,22.87157,56.46561,,,,,,5.1,0.000221893,102487,102487,102591,5.95453e+17,0.12513
2.0,3.0,50.00483,15459.9,-357.907,-922.164,-27141.3,0.00021,-4e-05,50.11798,227.324,,0.0,-0.00143,-0.00449,22.87163,56.46444,,,,,,5.355,0.000222068,102568,102568,102472,6.25226e+17,0.127828
2.0,3.0,50.00556,15460.1,-357.906,-922.164,-27141.3,-0.00025,0.00038,50.11877,227.403,,0.0,-0.00145,-0.00448,22.87154,56.46517,,,,,,5.61,0.000221366,102243,102243,102357,6.54998e+17,0.117049
2.0,3.0,50.00467,15460.4,-357.907,-922.163,-27141.3,-0.00029,0.0004,50.11736,226.604,,0.0,-0.00146,-0.0045,22.87168,56.46428,,,,,,5.865,0.000221642,102371,102371,102246,6.84771e+17,0.12129
2.0,3.0,50.00512,15460.6,-357.907,-922.163,-27141.302,-0.00061,0.00053,50.11789,226.717,,0.0,-0.00146,-0.00453,22.87159,56.46474,,,,,,6.12,0.000220923,102038,102038,102139,7.14544e+17,0.110238
2.0,3.0,50.00431,15460.9,-357.906,-922.163,-27141.3,-0.00027,0.0002,50.11657,225.931,,0.0,-0.00154,-0.00453,22.87167,56.46392,,,,,,6.375,0.000221056,102100,102100,102036,7.44316e+17,0.112285
2.0,3.0,50.00463,15461.1,-357.906,-922.163,-27141.303,-0.00013,-9e-05,50.11697,226.055,,0.0,-0.00149,-0.00452,22.87167,56.46424,,,,,,6.63,0.00022066,101917,101917,101937,7.74089e+17,0.106212
2.0,3.0,50.00438,15461.4,-357.906,-922.163,-27141.303,-0.00026,-0.00045,50.11638,225.535,,0.0,-0.00152,-0.00454,22.87178,56.46399,,,,,,6.885,0.000220473,101831,101831,101840,8.03862e+17,0.103337
2.0,3.0,50.004,15461.7,-357.907,-922.163,-27141.302,-0.00018,-4e-05,50.11586,225.32,,0.0,-0.00142,-0.0045,22.87182,56.46361,,,,,,7.14,0.000220316,101758,101758,101747,8.33634e+17,0.100927
2.0,3.0,50.0043,15461.9,-357.907,-922.163,-27141.3,0.00012,-0.0004,50.11604,225.121,,0.0,-0.00144,-0.00453,22.87174,56.46391,,,,,,7.395,0.000220005,101615,101615,101656,8.63407e+17,0.0961486
2.0,3.0,50.00352,15462.2,-357.907,-922.164,-27141.303,-0.00012,-7e-05,50.11493,224.611,,0.0,-0.0014,-0.00452,22.87187,56.46314,,,,,,7.65,0.000220101,101659,101659,101569,8.9318e+17,0.0976258
2.0,3.0,50.00438,15462.4,-357.9079,-922.163,-27141.3,4e-05,0.0002,50.11595,224.864,,0.0,-0.00143,-0.00448,22.87169,56.46399,,,,,,7.905,0.0002195,101382,101382,101484,9.22952e+17,0.0884019
2.0,3.0,50.00324,15462.7,-357.907,-922.164,-27141.301,-0.00058,7e-05,50.1143,224.068,,0.0,-0.00148,-0.00451,22.87197,56.46286,,,,,,8.16,0.00021984,101539,101539,101401,9.52725e+17,0.0936202
2.0,3.0,50.00433,15462.9,-357.905,-922.164,-27141.303,0.00032,2e-05,50.11564,224.456,,0.0,-0.00142,-0.00445,22.8721,56.46394,,,,,,8.415,0.00021919,101238,101238,101322,9.82498e+17,0.083635
2.0,3.0,50.00337,15463.2,-357.907,-922.164,-27141.303,-0.00025,-1e-05,50.11419,223.697,,0.0,-0.00156,-0.00455,22.87187,56.46298,,,,,,8.67,0.000219337,101306,101306,101244,1.01227e+18,0.0858996
2.0,3.0,50.00389,15463.4,-357.906,-922.163,-27141.303,6e-05,-0.00022,50.11485,223.909,,0.0,-0.00145,-0.00452,22.87211,56.4635,,,,,,8.925,0.000218966,101135,101135,101169,1.04204e+18,0.0802025
2.0,3.0,50.0033,15463.7,-357.907,-922.163,-27141.301,-0.00034,-0.00032,50.11385,223.282,,0.0,-0.00149,-0.00452,22.87203,56.46291,,,,,,9.18,0.000218827,101071,101071,101096,1.07182e+18,0.078073
2.0,3.0,50.00339,15464,-357.907,-922.164,-27141.301,0.00014,-0.00016,50.114,223.372,,0.0,-0.00148,-0.0045,22.87204,56.463,,,,,,9.435,0.0002187517,101036,101036,101026,1.10159e+18,0.076911
2.0,3.0,50.00358,15464.2,-357.906,-922.163,-27141.304,-3e-05,0.00027,50.11405,223.1578,,0.0,-0.00152,-0.00452,22.87204,56.46319,,,,,,,,,,,,
2.0,3.0,50.00297,15464.5,-357.907,-922.163,-27141.3,-2e-05,0.00034,50.11316,222.726,,0.0,-0.00156,-0.00452,22.87225,56.46258,,,,,,,,,,,,
2.0,3.0,50.00412,15464.7,-357.906,-922.165,-27141.304,-0.00032,-4e-05,50.11458,223.124,,0.0,-0.00148,-0.0045,22.87215,56.46374,,,,,,,,,,,,
2.0,3.0,50.0027,15465,-357.907,-922.164,-27141.3,-0.00039,-0.00035,50.11259,222.248,,0.0,-0.00153,-0.00446,22.87226,56.46231,,,,,,,,,,,,
2.0,3.0,50.00391,15465.2,-357.906,-922.163,-27141.304,-0.00014,-0.0001,50.11411,222.728,,0.0,-0.00148,-0.00447,22.87223,56.46352,,,,,,,,,,,,
2.0,3.0,50.00293,15465.5,-357.907,-922.164,-27141.3,6e-05,3e-05,50.11268,222.027,,0.0,-0.00157,-0.0045,22.87233,56.46254,,,,,,,,,,,,
2.0,3.0,50.00339,15465.7,-357.906,-922.164,-27141.303,-0.00034,-0.00016,50.11325,222.198,,0.0,-0.00143,-0.0045,22.87234,56.463,,,,,,,,,,,,
2.0,3.0,50.00316,15466,-357.907,-922.1639,-27141.303,-0.00014,0.00019,50.11276,221.7986,,0.0,-0.0015,-0.00447,22.87236,56.46277,,,,,,,,,,,,
2.0,3.0,50.00307,15466.2,-357.906,-922.164,-27141.302,-0.00019,0.00046,50.11259,221.688,,0.0,-0.00146,-0.00449,22.87245,56.46268,,,,,,,,,,,,
2.0,3.0,50.00358,15466.5,-357.906,-922.1622,-27141.3,-0.00023,0.00035,50.11319,221.812,,0.0,-0.00152,-0.00452,22.87248,56.46319,,,,,,,,,,,,
2.0,4.0,45.67441,15466.8,-357.905,-922.163,-27141.304,-8e-05,0.00023,45.68958,75.06721,,0.0,-0.00157,-0.00451,22.87238,52.13402,,,,,,,,,,,,
2.0,4.0,39.03588,15467,-357.9062,-922.163,-27141.304,0.00012,0.00059,39.02549,35.33213,,0.0,-0.00146,-0.00445,22.87241,45.4955,,,,,,,,,,,,
2.0,4.0,32.47361,15467.3,-357.905,-922.163,-27141.304,-6e-05,-0.00032,32.44914,13.45186,,0.0,-0.0015,-0.00446,22.87234,38.93323,,,,,,,,,,,,
2.0,4.0,25.97379,15467.5,-357.906,-922.164,-27141.304,0.00039,0.00013,25.94069,0.04272,,0.0,-0.00151,-0.00451,22.87227,32.4334,,,,,,,,,,,,
2.0,4.0,19.50338,15467.8,-357.907,-922.163,-27141.303,2e-05,0.00015,19.46984,-0.62936,,0.0,-0.00152,-0.0045,22.87238,25.96299,,,,,,,,,,,,
2.0,4.0,13.05517,15468,-357.905,-922.164,-27141.3,-1e-05,0.00027,13.02118,-1.32467,,0.0,-0.0015,-0.00449,22.87255,19.51478,,,,,,,,,,,,
2.0,4.0,6.62636,15468.3,-357.907,-922.164,-27141.304,-4e-05,0.00051,6.59194,-1.99731,,0.0,-0.00148,-0.0045,22.87247,13.08597,,,,,,,,,,,,
2.0,4.0,0.42191,15468.5,-357.907,-922.163,-27141.3,-0.00012,-0.0001,0.38708,-2.64131,,0.0,-0.00147,-0.00446,22.87255,6.88152,,,,,,,,,,,,
2.0,4.0,0.20956,15468.6,-357.905,-922.163,-27141.3,0.00034,0.00054,0.17471,-2.65756,,0.0,-0.0015,-0.00451,22.87252,6.66917,,,,,,,,,,,,