File: dataset_example/processed_data/ForceRelax_example/data/data_1_Measurements/GMM Fitting Results/data_1_1_GMM Fit.csv
Index [#],Phase [#],Displacement [um],Time [s],Pos X [um],Pos Y [um],Pos Z [um],Piezo X [um],Piezo Y [um],Piezo Z [um],Force A [uN],Force B [uN],Gripper [V],Voltage A [V],Voltage B [V],Temperature [oC],Sample Displacement [um],Filtered time [uN},Filtered force [uN],SG Force [uN],Est Force 2nd derivative,Filtered displacement [um],Sel Time [s],Sel Force [N],Sel Modulus Uncorrected [Pa],Sel Modulus Corrected [Pa],Sel Modulus GMM Fit [Pa],Sel Time Normalised [s m-2],Sel Force Normalised []
0.0,2.0,0.00921,15411.086,-1357.907,-922.162,-27138,-0.0,0.00021,0.00888,-0.03091,,0.0,-0.00157,-0.00453,22.86596,21.46908,15411.086,-0.03091,-0.0384997,0.000356521,0.00888,0.0,0.000306324,140103,140103,141681,0.0,1.0
0.0,2.0,4.9844,15411.341,-1357.91,-922.162,-27138,-6e-05,-0.0003,4.98442,0.50739,,0.0,-0.00151,-0.00451,22.8662,26.44428,15411.341,0.50739,0.515626,-1.29456e-05,4.98442,0.255,0.000265028,121216,121216,121234,2.93862e+16,0.446524
0.0,2.0,11.5843,15411.596,-1357.906,-922.163,-27138.038,-0.0,5e-05,11.58478,1.21899,,0.0,-0.00155,-0.00454,22.86636,33.04417,15411.596,1.21899,1.22475,3.00506e-05,11.58478,0.51,0.000256879,117489,117489,117448,5.87723e+16,0.337299
0.0,2.0,18.06225,15411.851,-1357.906,-922.163,-27138,-0.00017,-0.00012,18.06317,1.91171,,0.0,-0.00144,-0.00451,22.86618,39.52212,15411.851,1.91171,1.91253,2.3951e-06,18.06317,0.765,0.000253789,116076,116076,115975,8.81585e+16,0.295887
0.0,2.0,24.49217,15412.106,-1357.91,-922.163,-27138,-0.00015,0.00011,24.49352,2.58222,,0.0,-0.00148,-0.00453,22.86635,45.95204,15412.106,2.58222,2.57814,0.000337315,24.49352,1.02,0.000251015,114807,114807,114968,1.17545e+17,0.258701
0.0,2.0,30.88272,15412.361,-1357.91,-922.163,-27138,3e-05,-0.00017,30.91396,49.01711,,0.0,-0.00145,-0.00452,22.86629,52.3426,15412.361,49.01711,49.1492,0.00343956,30.91396,1.275,0.000249734,114221,114221,114156,1.46931e+17,0.241542
0.0,2.0,37.26617,15412.616,-1357.91,-922.163,-27138.041,0.00047,-0.00058,37.35261,134.797,,0.0,-0.00147,-0.00456,22.86625,58.72604,15412.616,134.797,134.626,0.00523857,37.35261,1.53,0.000247767,113321,113321,113476,1.76317e+17,0.215178
0.0,2.0,43.63439,15412.871,-1357.91,-922.163,-27138,-4e-05,-0.00062,43.78037,227.332,,0.0,-0.00145,-0.00454,22.86633,65.09426,15412.871,227.332,227.588,0.0023891,43.78037,1.785,0.000247076,113005,113005,112897,2.05703e+17,0.20591
0.0,3.0,49.61305,15413.126,-1357.91,-922.163,-27138.041,-0.0,-3e-05,49.80804,303.486,,0.0,-0.00151,-0.00453,22.86653,71.07292,,,,,,2.04,0.000245567,112315,112315,112398,2.35089e+17,0.185685
0.0,3.0,50.07948,15413.381,-1357.91,-922.163,-27138.04,3e-05,0.00012,50.2511,267.16,,0.0,-0.00143,-0.00454,22.86638,71.53935,,,,,,2.295,0.0002449888,112051,112051,111961,2.64475e+17,0.177938
0.0,3.0,50.03398,15413.636,-1357.906,-922.163,-27138,5e-05,-0.00017,50.2016,260.949,,0.0,-0.00151,-0.00445,22.86643,71.49385,,,,,,2.55,0.000243925,111564,111564,111576,2.93862e+17,0.163675
0.0,3.0,50.01985,15413.891,-1357.91,-922.162,-27138.04,-0.00031,7e-05,50.18526,257.515,,0.0,-0.00155,-0.00452,22.86665,71.47973,,,,,,2.805,0.00024325,111255,111255,111231,3.23248e+17,0.154637
0.0,3.0,50.0139,15414.146,-1357.91,-922.162,-27138,-0.00032,-0.00063,50.17778,255.1423,,0.0,-0.00159,-0.0045,22.86638,71.47377,,,,,,3.06,0.000242623,110969,110969,110921,3.52634e+17,0.146234
0.0,3.0,50.01149,15414.401,-1357.91,-922.162,-27138,-0.00024,0.00033,50.17447,253.749,,0.0,-0.00147,-0.00451,22.86656,71.47136,,,,,,3.315,0.000241832,110607,110607,110639,3.8202e+17,0.135622
0.0,3.0,50.00876,15414.656,-1357.91,-922.161,-27138.041,-0.00033,-0.00098,50.17058,251.928,,0.0,-0.00154,-0.00452,22.86658,71.46864,,,,,,3.57,0.000241638,110518,110518,110380,4.11406e+17,0.133024
0.0,3.0,50.00854,15414.911,-1357.91,-922.163,-27138.042,0.00051,0.00036,50.17,251.38,,0.0,-0.00152,-0.00451,22.86657,71.46842,,,,,,3.825,0.000240545,110018,110018,110142,4.40792e+17,0.118375
0.0,3.0,50.00638,15415.166,-1357.91,-922.161,-27138.041,-0.00026,-0.00033,50.16672,249.636,,0.0,-0.0015,-0.00446,22.86649,71.46625,,,,,,4.08,0.000240757,110115,110115,109921,4.70179e+17,0.121219
0.0,3.0,50.00656,15415.421,-1357.91,-922.162,-27138,-0.00013,-0.00026,50.16672,249.36,,0.0,-0.00142,-0.00452,22.8665,71.46644,,,,,,4.335,0.000239602,109587,109587,109715,4.99565e+17,0.105741
0.0,3.0,50.00519,15415.676,-1357.91,-922.163,-27138.041,-8e-05,0.00019,50.16446,247.9746,,0.0,-0.00149,-0.00452,22.86654,71.46507,,,,,,4.59,0.000239679,109622,109622,109522,5.28951e+17,0.106771
0.0,3.0,50.00536,15415.931,-1357.91,-922.163,-27138,0.00013,0.00038,50.16451,247.781,,0.0,-0.00148,-0.00452,22.86665,71.46523,,,,,,4.845,0.000238973,109299,109299,109341,5.58337e+17,0.0973129
0.0,3.0,50.00424,15416.186,-1357.91,-922.162,-27138.041,-0.00013,-0.00022,50.16265,246.6277,,0.0,-0.00149,-0.00459,22.86676,71.46412,,,,,,5.1,0.000238494,109080,109080,109171,5.87723e+17,0.0908932
0.0,3.0,50.00433,15416.441,-1357.907,-922.1629,-27138,0.0001,9e-05,50.16253,246.3062,,0.0,-0.00147,-0.00454,22.8667,71.4642,,,,,,5.355,0.000238486,109076,109076,109011,6.17109e+17,0.0907841
0.0,3.0,50.00428,15416.696,-1357.91,-922.163,-27138,0.00051,0.00042,50.16216,245.813,,0.0,-0.00151,-0.00452,22.86669,71.46415,,,,,,5.61,0.000237614,108677,108677,108859,6.46496e+17,0.079089
0.0,3.0,50.00318,15416.951,-1357.91,-922.163,-27138.041,0.00023,-1e-05,50.16044,244.864,,0.0,-0.00154,-0.00449,22.86678,71.46305,,,,,,5.865,0.000237967,108839,108839,108716,6.75882e+17,0.0838307
0.0,3.0,50.0041,15417.206,-1357.91,-922.163,-27138.04,6e-05,0.00018,50.16147,245.031,,0.0,-0.00149,-0.0045,22.86678,71.46397,,,,,,6.12,0.00023698,108388,108388,108581,7.05268e+17,0.0706002
0.0,3.0,50.00263,15417.461,-1357.91,-922.163,-27138,-0.00019,8e-05,50.15921,243.7937,,0.0,-0.00153,-0.0045,22.86683,71.4625,,,,,,6.375,0.000237361,108562,108562,108452,7.34654e+17,0.0757067
0.0,3.0,50.00378,15417.716,-1357.91,-922.162,-27138,0.00011,-0.00026,50.16054,244.072,,0.0,-0.00152,-0.00455,22.86704,71.46365,,,,,,6.63,0.0002365,108168,108168,108330,7.6404e+17,0.0641632
0.0,3.0,50.00253,15417.971,-1357.91,-922.162,-27138,-0.00017,3e-05,50.15865,243.083,,0.0,-0.00149,-0.00451,22.86681,71.4624,,,,,,6.885,0.000236841,108324,108324,108215,7.93426e+17,0.068731
0.0,3.0,50.00272,15418.226,-1357.907,-922.163,-27138,-8e-05,0.00014,50.15871,242.89,,0.0,-0.00155,-0.0046,22.86694,71.46259,,,,,,7.14,0.000236213,108037,108037,108105,8.22813e+17,0.0603164
0.0,3.0,50.00291,15418.481,-1357.906,-922.162,-27138,0.0003,-0.00042,50.15872,242.599,,0.0,-0.00151,-0.00449,22.86697,71.46278,,,,,,7.395,0.000236101,107985,107985,108001,8.52199e+17,0.0588092
0.0,3.0,50.00227,15418.736,-1357.91,-922.163,-27138,0.00017,-0.00046,50.15777,242.112,,0.0,-0.0015,-0.00456,22.86705,71.46215,,,,,,7.65,0.0002360031,107941,107941,107902,8.81585e+17,0.0575036
0.0,3.0,50.00289,15418.991,-1357.907,-922.163,-27138,0.00065,0.00024,50.1584,242.123,,0.0,-0.00151,-0.00454,22.86696,71.46277,,,,,,7.905,0.000235595,107754,107754,107808,9.10971e+17,0.0520387
0.0,3.0,50.00181,15419.246,-1357.907,-922.162,-27138,-0.00019,-0.00034,50.1568,241.317,,0.0,-0.0015,-0.0045,22.86713,71.46169,,,,,,8.16,0.000235796,107846,107846,107718,9.40357e+17,0.0547226
0.0,3.0,50.00289,15419.501,-1357.907,-922.162,-27138.041,0.00024,0.00024,50.15808,241.639,,0.0,-0.00151,-0.00454,22.86712,71.46276,,,,,,8.415,0.000235051,107505,107505,107633,9.69743e+17,0.0447404
0.0,3.0,50.00157,15419.756,-1357.906,-922.162,-27138.04,3e-05,0.00011,50.1562,240.779,,0.0,-0.00147,-0.00454,22.86711,71.46144,,,,,,8.67,0.000235541,107729,107729,107552,9.99129e+17,0.0513111
0.0,3.0,50.00254,15420.011,-1357.91,-922.162,-27138,-6e-05,7e-05,50.15741,241.129,,0.0,-0.0015,-0.00454,22.86715,71.46242,,,,,,8.925,0.00023483,107404,107404,107476,1.02852e+18,0.0417763
0.0,3.0,50.00171,15420.266,-1357.91,-922.162,-27138.042,0.00026,-0.00014,50.15612,240.426,,0.0,-0.00148,-0.00457,22.86731,71.46158,,,,,,9.18,0.0002350422,107501,107501,107402,1.0579e+18,0.0446248
0.0,3.0,50.0022,15420.521,-1357.91,-922.162,-27138.039,0.00011,-0.00039,50.15675,240.6411,,0.0,-0.0015,-0.00451,22.8672,71.46208,,,,,,9.435,0.000234539,107271,107271,107333,1.08729e+18,0.0378744
0.0,3.0,50.00181,15420.776,-1357.91,-922.162,-27138.041,0.0003,-8e-05,50.15606,240.166,,0.0,-0.00153,-0.00455,22.86716,71.46168,,,,,,,,,,,,
0.0,3.0,50.00181,15421.031,-1357.91,-922.1629,-27138.041,0.00015,0.00016,50.15605,240.147,,0.0,-0.0015,-0.00456,22.86727,71.46169,,,,,,,,,,,,
0.0,3.0,50.00199,15421.286,-1357.907,-922.162,-27138,-0.00029,0.0001,50.15603,239.846,,0.0,-0.00141,-0.00454,22.86738,71.46186,,,,,,,,,,,,
0.0,3.0,50.00146,15421.541,-1357.91,-922.163,-27138,-0.00031,-0.00032,50.15534,239.606,,0.0,-0.00145,-0.00453,22.86732,71.46133,,,,,,,,,,,,
0.0,3.0,50.00213,15421.796,-1357.91,-922.163,-27138,-9e-05,-6e-05,50.15605,239.667,,0.0,-0.00147,-0.00456,22.86729,71.462,,,,,,,,,,,,
0.0,3.0,50.00118,15422.051,-1357.91,-922.161,-27138.04,0.00025,-0.00019,50.15476,239.136,,0.0,-0.00151,-0.00454,22.8674,71.46105,,,,,,,,,,,,
0.0,3.0,50.00209,15422.306,-1357.907,-922.163,-27138.04,0.0003,-0.00014,50.15585,239.4252,,0.0,-0.00146,-0.00457,22.8673,71.46196,,,,,,,,,,,,
0.0,3.0,50.00128,15422.561,-1357.91,-922.163,-27138,0.00023,-7e-05,50.15461,238.748,,0.0,-0.00144,-0.00457,22.86732,71.46115,,,,,,,,,,,,
0.0,3.0,50.00182,15422.816,-1357.907,-922.161,-27138.041,-0.00016,0.00022,50.15533,239.032,,0.0,-0.00145,-0.00454,22.86746,71.46169,,,,,,,,,,,,
0.0,3.0,50.00152,15423.071,-1357.906,-922.162,-27138.041,-6e-05,0.00016,50.15467,238.461,,0.0,-0.00151,-0.00457,22.86754,71.46139,,,,,,,,,,,,
0.0,4.0,45.66384,15423.326,-1357.906,-922.162,-27138,-0.00021,0.00049,45.71506,80.07427,,0.0,-0.00144,-0.00454,22.86739,67.12371,,,,,,,,,,,,
0.0,4.0,39.02284,15423.581,-1357.907,-922.162,-27138.041,-0.00016,0.00047,39.04613,36.67586,,0.0,-0.0015,-0.00452,22.86771,60.48271,,,,,,,,,,,,
0.0,4.0,32.46202,15423.836,-1357.91,-922.162,-27138,-0.0,0.00033,32.47043,13.54607,,0.0,-0.00148,-0.00452,22.86761,53.9219,,,,,,,,,,,,
0.0,4.0,25.96103,15424.091,-1357.907,-922.162,-27138.041,0.00038,0.00016,25.95986,-1.32949,,0.0,-0.00148,-0.00455,22.86756,47.4209,,,,,,,,,,,,
0.0,4.0,19.49041,15424.346,-1357.91,-922.164,-27138.041,0.00036,0.00017,19.48881,-2.00521,,0.0,-0.0015,-0.00452,22.86762,40.95028,,,,,,,,,,,,
0.0,4.0,13.04216,15424.601,-1357.907,-922.162,-27138,2e-05,0.00026,13.04012,-2.68994,,0.0,-0.00152,-0.00455,22.8676,34.50204,,,,,,,,,,,,
0.0,4.0,6.61106,15424.856,-1357.91,-922.163,-27138.039,5e-05,0.00019,6.60858,-3.37391,,0.0,-0.00147,-0.00455,22.86765,28.07093,,,,,,,,,,,,
0.0,4.0,0.41128,15425.111,-1357.91,-922.163,-27138.04,0.00019,0.00028,0.4084,-3.99931,,0.0,-0.00145,-0.00454,22.86763,21.87115,,,,,,,,,,,,
0.0,4.0,0.19959,15425.131,-1357.906,-922.162,-27138,0.00011,-3e-05,0.1967,-4.01726,,0.0,-0.00147,-0.00451,22.86759,21.65947,,,,,,,,,,,,