File: dataset_example/processed_data/ForceRelax_example/data/data_1_Measurements/GMM Fitting Results/data_1_2_GMM Fit.csv
Index [#],Phase [#],Displacement [um],Time [s],Pos X [um],Pos Y [um],Pos Z [um],Piezo X [um],Piezo Y [um],Piezo Z [um],Force A [uN],Force B [uN],Gripper [V],Voltage A [V],Voltage B [V],Temperature [oC],Sample Displacement [um],Filtered time [uN},Filtered force [uN],SG Force [uN],Est Force 2nd derivative,Filtered displacement [um],Sel Time [s],Sel Force [N],Sel Modulus Uncorrected [Pa],Sel Modulus Corrected [Pa],Sel Modulus GMM Fit [Pa],Sel Time Normalised [s m-2],Sel Force Normalised []
1.0,2.0,0.01398,15432.796,-857.904,-922.163,-27139.353,0.00013,-0.00044,-0.01253,-0.13725,,0.0,-0.00151,-0.00456,22.86838,-23.41422,15432.796,-0.13725,-0.138295,0.000370534,-0.01253,0.0,0.000287811,134001,134001,135382,0.0,1.0
1.0,2.0,5.10213,15433.056,-857.905,-922.163,-27139.356,-1e-05,-0.00019,5.07587,0.2575,,0.0,-0.0015,-0.00457,22.86864,-18.32608,15433.056,0.2575,0.259727,5.1769e-05,5.07587,0.26,0.000250036,116413,116413,116380,3.0682e+16,0.433938
1.0,2.0,11.82074,15433.316,-857.905,-922.162,-27139.4,1e-05,0.00016,11.79462,0.46268,,0.0,-0.00147,-0.00458,22.86837,-11.60746,15433.316,0.46268,0.459113,0.00129682,11.79462,0.52,0.000242461,112886,112886,112976,6.1364e+16,0.320423
1.0,2.0,18.42979,15433.576,-857.903,-922.162,-27139.4,0.00022,-0.00054,18.40391,0.83093,,0.0,-0.00148,-0.00453,22.86875,-4.99841,15433.576,0.83093,0.819882,-0.00113965,18.40391,0.78,0.000239517,111516,111516,111644,9.2046e+16,0.276311
1.0,2.0,24.98498,15433.836,-857.904,-922.163,-27139.4,0.00041,-0.00066,24.95914,0.90887,,0.0,-0.00151,-0.00446,22.86841,1.55677,15433.836,0.90887,0.873558,0.00203284,24.95914,1.04,0.000238001,110810,110810,110747,1.22728e+17,0.25359
1.0,2.0,31.50322,15434.096,-857.906,-922.162,-27139.359,-0.00031,-0.00035,31.5077,48.01601,,0.0,-0.00158,-0.00448,22.86876,8.07502,15434.096,48.01601,48.1258,0.0106846,31.5077,1.3,0.000236595,110155,110155,110045,1.5341e+17,0.232523
1.0,2.0,38.00981,15434.356,-857.905,-922.163,-27139.36,0.00017,-0.00048,38.06822,131.815,,0.0,-0.0015,-0.00448,22.86871,14.58161,15434.356,131.815,131.737,0.00449474,38.06822,1.56,0.00023495,109389,109389,109474,1.84092e+17,0.207867
1.0,2.0,44.50086,15434.616,-857.905,-922.162,-27139.4,-7e-05,0.00025,44.61829,223.534,,0.0,-0.00153,-0.00447,22.86875,21.07265,15434.616,223.534,223.399,0.00254756,44.61829,1.82,0.000234002,108948,108948,109000,2.14774e+17,0.193663
1.0,3.0,49.89455,15434.876,-857.904,-922.162,-27139.361,-7e-05,-0.00025,50.04356,272.613,,0.0,-0.00157,-0.00448,22.86869,26.46634,,,,,,2.08,0.000233564,108744,108744,108598,2.45456e+17,0.187104
1.0,3.0,50.0708,15435.136,-857.904,-922.162,-27139.4,3e-05,-0.00043,50.20439,248.646,,0.0,-0.00152,-0.00449,22.86893,26.64259,,,,,,2.34,0.000232545,108269,108269,108252,2.76138e+17,0.171823
1.0,3.0,50.03702,15435.396,-857.904,-922.162,-27139.4,0.00017,3e-05,50.1677,244.109,,0.0,-0.00148,-0.00456,22.86882,26.60882,,,,,,2.6,0.000231505,107785,107785,107948,3.0682e+17,0.156242
1.0,3.0,50.02625,15435.656,-857.905,-922.162,-27139.4,0.00033,-5e-05,50.15525,241.511,,0.0,-0.00149,-0.00452,22.86888,26.59804,,,,,,2.86,0.000231154,107622,107622,107678,3.37502e+17,0.150978
1.0,3.0,50.02144,15435.916,-857.905,-922.163,-27139.362,0.00017,-6e-05,50.1491,239.431,,0.0,-0.00149,-0.00448,22.86885,26.59323,,,,,,3.12,0.000230962,107532,107532,107434,3.68184e+17,0.148102
1.0,3.0,50.01893,15436.176,-857.903,-922.163,-27139.4,0.00033,-0.00043,50.14554,237.792,,0.0,-0.00148,-0.00446,22.86883,26.59072,,,,,,3.38,0.0002303106,107229,107229,107212,3.98866e+17,0.138345
1.0,3.0,50.01813,15436.436,-857.906,-922.162,-27139.4,0.00023,-0.0001,50.14427,237.063,,0.0,-0.00148,-0.00449,22.86896,26.58993,,,,,,3.64,0.000229656,106924,106924,107007,4.29548e+17,0.128535
1.0,3.0,50.01664,15436.696,-857.905,-922.162,-27139.366,-3e-05,-0.00037,50.1421,236,,0.0,-0.00149,-0.00452,22.86898,26.58844,,,,,,3.9,0.0002292516,106736,106736,106816,4.6023e+17,0.122476
1.0,3.0,50.01524,15436.956,-857.906,-922.163,-27139.4,0.00041,-0.0004,50.13995,234.833,,0.0,-0.00152,-0.00449,22.869,26.58704,,,,,,4.16,0.0002292986,106758,106758,106638,4.90912e+17,0.12318
1.0,3.0,50.01553,15437.216,-857.905,-922.162,-27139.4,0.00047,-0.00011,50.13992,234.349,,0.0,-0.00151,-0.00451,22.86912,26.58732,,,,,,4.42,0.00022889,106568,106568,106471,5.21594e+17,0.117052
1.0,3.0,50.01524,15437.476,-857.904,-922.163,-27139.365,0.00061,0.00023,50.13948,234.111,,0.0,-0.0015,-0.0045,22.86909,26.58704,,,,,,4.68,0.00022807,106186,106186,106313,5.52276e+17,0.104773
1.0,3.0,50.01469,15437.736,-857.905,-922.163,-27139.365,0.00019,7e-05,50.13851,233.473,,0.0,-0.00149,-0.00451,22.86909,26.58648,,,,,,4.94,0.00022774,106032,106032,106164,5.82958e+17,0.0998222
1.0,3.0,50.0136,15437.996,-857.904,-922.162,-27139.366,7e-05,-0.00024,50.13684,232.5621,,0.0,-0.00147,-0.00451,22.86909,26.5854,,,,,,5.2,0.000227907,106110,106110,106022,6.1364e+17,0.10233
1.0,3.0,50.01358,15438.256,-857.904,-922.162,-27139.4,0.00011,8e-05,50.13654,232.116,,0.0,-0.00149,-0.00452,22.86903,26.58538,,,,,,5.46,0.000227687,106008,106008,105887,6.44322e+17,0.0990333
1.0,3.0,50.01401,15438.516,-857.904,-922.163,-27139.4,0.00026,-1e-05,50.13684,231.9277,,0.0,-0.00147,-0.00449,22.86902,26.5858,,,,,,5.72,0.000227048,105710,105710,105759,6.75004e+17,0.0894542
1.0,3.0,50.01374,15438.776,-857.904,-922.162,-27139.4,0.00012,3e-05,50.13638,231.6351,,0.0,-0.0015,-0.00451,22.86919,26.58553,,,,,,5.98,0.00022667,105534,105534,105636,7.05686e+17,0.083791
1.0,3.0,50.01262,15439.036,-857.905,-922.164,-27139.4,-0.0002,-1e-05,50.13472,230.79,,0.0,-0.0015,-0.00447,22.86916,26.58442,,,,,,6.24,0.000226947,105663,105663,105519,7.36368e+17,0.0879479
1.0,3.0,50.01256,15439.296,-857.905,-922.162,-27139.363,-0.00017,-0.00012,50.13442,230.411,,0.0,-0.00151,-0.00449,22.8692,26.58436,,,,,,6.5,0.000226391,105404,105404,105407,7.6705e+17,0.0796113
1.0,3.0,50.01347,15439.556,-857.904,-922.161,-27139.4,0.00021,0.0003,50.13542,230.552,,0.0,-0.00156,-0.00451,22.86909,26.58526,,,,,,6.76,0.000225872,105162,105162,105301,7.97732e+17,0.0718287
1.0,3.0,50.01311,15439.816,-857.905,-922.163,-27139.365,-9e-05,-0.00021,50.13488,230.284,,0.0,-0.00149,-0.00448,22.86932,26.5849,,,,,,7.02,0.000225884,105168,105168,105199,8.28414e+17,0.072011
1.0,3.0,50.01233,15440.076,-857.905,-922.163,-27139.4,-0.0001,-6e-05,50.13365,229.587,,0.0,-0.00152,-0.0045,22.86928,26.58412,,,,,,7.28,0.000225933,105191,105191,105101,8.59096e+17,0.0727464
1.0,3.0,50.01201,15440.336,-857.905,-922.163,-27139.4,-0.0003,-0.00013,50.13308,229.19,,0.0,-0.00151,-0.00449,22.86921,26.58381,,,,,,7.54,0.000225654,105061,105061,105008,8.89778e+17,0.0685693
1.0,3.0,50.01274,15440.596,-857.904,-922.163,-27139.4,-0.00014,-0.0003,50.13386,229.266,,0.0,-0.00147,-0.0045,22.86933,26.58454,,,,,,7.8,0.000225125,104815,104815,104919,9.2046e+17,0.0606313
1.0,3.0,50.01267,15440.856,-857.905,-922.162,-27139.4,7e-05,-5e-05,50.13371,229.143,,0.0,-0.0015,-0.00453,22.86925,26.58446,,,,,,8.06,0.000225086,104797,104797,104834,9.51142e+17,0.0600601
1.0,3.0,50.01165,15441.116,-857.905,-922.162,-27139.365,-0.00014,-0.0006,50.13221,228.384,,0.0,-0.0015,-0.00458,22.86948,26.58345,,,,,,8.32,0.000225322,104906,104906,104752,9.81824e+17,0.0635878
1.0,3.0,50.01211,15441.376,-857.904,-922.163,-27139.366,-0.00014,0.00012,50.1326,228.294,,0.0,-0.00146,-0.00452,22.86943,26.5839,,,,,,8.58,0.000225082,104795,104795,104674,1.01251e+18,0.0599882
1.0,3.0,50.01275,15441.636,-857.904,-922.161,-27139.363,0.00015,0.00032,50.13339,228.514,,0.0,-0.00149,-0.00455,22.8694,26.58455,,,,,,8.84,0.000224468,104509,104509,104599,1.04319e+18,0.0507929
1.0,3.0,50.0124,15441.896,-857.904,-922.162,-27139.363,-0.00011,0.00034,50.13283,228.206,,0.0,-0.00147,-0.00455,22.86946,26.58419,,,,,,9.1,0.000224172,104371,104371,104528,1.07387e+18,0.0463523
1.0,3.0,50.0116,15442.156,-857.904,-922.163,-27139.4,-0.0,5e-05,50.13166,227.61,,0.0,-0.00149,-0.0045,22.8695,26.5834,,,,,,9.36,0.000224599,104570,104570,104459,1.10455e+18,0.0527559
1.0,3.0,50.01179,15442.416,-857.904,-922.162,-27139.365,-0.00068,-0.00012,50.13171,227.393,,0.0,-0.00146,-0.00453,22.8696,26.58359,,,,,,,,,,,,
1.0,3.0,50.01252,15442.676,-857.904,-922.163,-27139.4,4e-05,0.00045,50.1326,227.65,,0.0,-0.00142,-0.00455,22.86962,26.58431,,,,,,,,,,,,
1.0,3.0,50.01223,15442.936,-857.904,-922.163,-27139.365,0.0001,7e-05,50.13218,227.455,,0.0,-0.00152,-0.00455,22.86944,26.58402,,,,,,,,,,,,
1.0,3.0,50.01145,15443.196,-857.905,-922.161,-27139.4,-5e-05,0.0003,50.13101,226.833,,0.0,-0.00149,-0.00457,22.86964,26.58325,,,,,,,,,,,,
1.0,3.0,50.0114,15443.456,-857.906,-922.162,-27139.4,-0.00053,-9e-05,50.13079,226.578,,0.0,-0.00148,-0.00452,22.86958,26.58319,,,,,,,,,,,,
1.0,3.0,50.01202,15443.716,-857.904,-922.163,-27139.4,-7e-05,0.00014,50.13155,226.795,,0.0,-0.00145,-0.00454,22.86975,26.58382,,,,,,,,,,,,
1.0,3.0,50.01234,15443.976,-857.905,-922.162,-27139.4,0.00014,0.00028,50.1319,226.849,,0.0,-0.00145,-0.00454,22.86972,26.58413,,,,,,,,,,,,
1.0,3.0,50.01129,15444.236,-857.904,-922.163,-27139.4,-7e-05,-1e-05,50.13044,226.203,,0.0,-0.00156,-0.00455,22.86978,26.58309,,,,,,,,,,,,
1.0,3.0,50.01149,15444.496,-857.904,-922.163,-27139.363,-6e-05,-0.00025,50.13059,226.131,,0.0,-0.00142,-0.00454,22.86972,26.58328,,,,,,,,,,,,
1.0,3.0,50.01214,15444.756,-857.905,-922.163,-27139.365,-6e-05,-7e-05,50.13137,226.327,,0.0,-0.00147,-0.00457,22.86988,26.58393,,,,,,,,,,,,
1.0,4.0,46.1816,15445.016,-857.904,-922.163,-27139.364,0.00017,0.00027,46.20908,83.75156,,0.0,-0.0015,-0.00456,22.86983,22.7534,,,,,,,,,,,,
1.0,4.0,39.42301,15445.276,-857.904,-922.163,-27139.4,-0.00041,0.00011,39.41933,35.33476,,0.0,-0.00147,-0.00453,22.86985,15.99481,,,,,,,,,,,,
1.0,4.0,32.72948,15445.536,-857.904,-922.162,-27139.364,-2e-05,0.00032,32.71106,12.43046,,0.0,-0.00147,-0.00453,22.86962,9.30128,,,,,,,,,,,,
1.0,4.0,26.09988,15445.796,-857.906,-922.163,-27139.4,0.00069,0.00049,26.07246,-1.5483,,0.0,-0.0015,-0.00452,22.86996,2.67167,,,,,,,,,,,,
1.0,4.0,19.50303,15446.056,-857.904,-922.163,-27139.4,3e-05,0.00051,19.47517,-2.24043,,0.0,-0.00157,-0.00452,22.86992,-3.92518,,,,,,,,,,,,
1.0,4.0,12.92727,15446.316,-857.905,-922.163,-27139.4,-0.00015,0.00055,12.89896,-2.93811,,0.0,-0.00152,-0.00451,22.87006,-10.50093,,,,,,,,,,,,
1.0,4.0,6.37265,15446.576,-857.904,-922.163,-27139.364,0.00018,0.00012,6.3439,-3.62612,,0.0,-0.00152,-0.00453,22.86995,-17.05555,,,,,,,,,,,,
1.0,4.0,0.25788,15446.836,-857.905,-922.163,-27139.4,0.00013,7e-05,0.22873,-4.24169,,0.0,-0.00149,-0.0045,22.87003,-23.17033,,,,,,,,,,,,
1.0,4.0,0.21228,15446.841,-857.904,-922.162,-27139.4,7e-05,0.0002,0.18312,-4.26103,,0.0,-0.00149,-0.00455,22.86998,-23.21593,,,,,,,,,,,,