File: dataset_example/processed_data/ForceRelax_example/data/data_1_Measurements/GMM Fitting Results/data_1_8_GMM Fit.csv
Index [#],Phase [#],Displacement [um],Time [s],Pos X [um],Pos Y [um],Pos Z [um],Piezo X [um],Piezo Y [um],Piezo Z [um],Force A [uN],Force B [uN],Gripper [V],Voltage A [V],Voltage B [V],Temperature [oC],Sample Displacement [um],Filtered time [uN},Filtered force [uN],SG Force [uN],Est Force 2nd derivative,Filtered displacement [um],Sel Time [s],Sel Force [N],Sel Modulus Uncorrected [Pa],Sel Modulus Corrected [Pa],Sel Modulus GMM Fit [Pa],Sel Time Normalised [s m-2],Sel Force Normalised []
7.0,2.0,0.00629,15563,-857.903,77.84099,-27144.122,-0.00023,-0.00016,-0.10343,-0.10941,,0.0,-0.00152,-0.00453,22.88303,-20.3729,15563,-0.10941,-0.114875,0.000329735,-0.10343,0.0,0.000273135,127318,127318,128639,0.0,1.0
7.0,2.0,4.96543,15563.3,-857.904,77.8419,-27144.1,4e-05,-0.00013,4.85597,0.28201,,0.0,-0.00151,-0.00451,22.88309,-15.41375,15563.3,0.28201,0.291298,9.36289e-05,4.85597,0.255,0.000238243,111054,111054,111009,3.01394e+16,0.443958
7.0,2.0,11.55552,15563.5,-857.904,77.84,-27144.126,-0.00071,-0.00041,11.44618,0.46058,,0.0,-0.00152,-0.00458,22.88315,-8.82366,15563.5,0.46058,0.456774,7.5404e-06,11.44618,0.51,0.000230974,107665,107665,107729,6.02789e+16,0.328117
7.0,2.0,18.03959,15563.8,-857.904,77.8392,-27144.1,-0.00015,-0.00018,17.93043,0.74616,,0.0,-0.00148,-0.00452,22.88309,-2.33959,15563.8,0.74616,0.750046,-0.000191798,17.93043,0.765,0.00022862,106568,106568,106453,9.04183e+16,0.2906
7.0,2.0,24.47195,15564,-857.903,77.841,-27144.129,2e-05,-8e-05,24.36291,0.9302,,0.0,-0.00149,-0.00451,22.88309,4.09277,15564,0.9302,0.925061,0.000908578,24.36291,1.02,0.000226194,105437,105437,105604,1.20558e+17,0.251952
7.0,2.0,30.86532,15564.3,-857.904,77.8409,-27144.1,-1e-05,-0.00011,30.78131,39.83572,,0.0,-0.00149,-0.00448,22.88309,10.48613,15564.3,39.83572,39.9031,0.00267416,30.78131,1.275,0.000225462,105096,105096,104944,1.50697e+17,0.240282
7.0,2.0,37.24768,15564.5,-857.903,77.84,-27144.13,0.00039,-0.00037,37.21351,117.283,,0.0,-0.00149,-0.00452,22.88315,16.8685,15564.5,117.283,117.095,0.00237231,37.21351,1.53,0.000223734,104291,104291,104408,1.80837e+17,0.212749
7.0,2.0,43.61351,15564.8,-857.904,77.84,-27144.1,0.00036,-0.00052,43.63308,200.787,,0.0,-0.00154,-0.00456,22.88318,23.23432,15564.8,200.787,200.97,0.000396241,43.63308,1.785,0.000223148,104017,104017,103964,2.10976e+17,0.203402
7.0,3.0,49.57929,15565,-857.904,77.84,-27144.13,-7e-05,-0.00021,49.64299,269.358,,0.0,-0.00157,-0.00454,22.88331,29.20011,,,,,,2.04,0.000222287,103616,103616,103588,2.41116e+17,0.18969
7.0,3.0,50.06975,15565.3,-857.905,77.84,-27144.131,0.0002,0.00022,50.11398,239.11,,0.0,-0.00151,-0.00451,22.88321,29.69056,,,,,,2.295,0.000221354,103181,103181,103265,2.71255e+17,0.174811
7.0,3.0,50.02985,15565.6,-857.903,77.841,-27144.132,-3e-05,0.00043,50.07017,233.0307,,0.0,-0.00147,-0.00454,22.88319,29.65067,,,,,,2.55,0.000221266,103140,103140,102982,3.01394e+17,0.173407
7.0,3.0,50.01856,15565.8,-857.903,77.83985,-27144.1,0.00011,0.00019,50.05747,230.841,,0.0,-0.0015,-0.00453,22.88326,29.63937,,,,,,2.805,0.0002202055,102646,102646,102731,3.31534e+17,0.156513
7.0,3.0,50.01261,15566.1,-857.905,77.841,-27144.132,-0.00047,-0.00025,50.04999,228.467,,0.0,-0.00149,-0.00452,22.88338,29.63343,,,,,,3.06,0.000220101,102597,102597,102504,3.61673e+17,0.154847
7.0,3.0,50.01138,15566.3,-857.904,77.84,-27144.133,-9e-05,0.00018,50.04832,227.79,,0.0,-0.00149,-0.00454,22.88344,29.63219,,,,,,3.315,0.000219325,102235,102235,102297,3.91813e+17,0.142476
7.0,3.0,50.00833,15566.6,-857.904,77.84002,-27144.132,0.0002,0.00016,50.0441,225.967,,0.0,-0.00147,-0.00451,22.88337,29.62914,,,,,,3.57,0.000219099,102130,102130,102106,4.21952e+17,0.138884
7.0,3.0,50.00851,15566.8,-857.904,77.8401,-27144.133,0.00022,-0.00011,50.04412,225.725,,0.0,-0.00152,-0.00452,22.88343,29.62932,,,,,,3.825,0.000218788,101985,101985,101928,4.52092e+17,0.133929
7.0,3.0,50.00694,15567.1,-857.903,77.84,-27144.135,2e-05,9e-05,50.04176,224.496,,0.0,-0.00149,-0.00452,22.88347,29.62775,,,,,,4.08,0.0002180861,101658,101658,101762,4.82231e+17,0.122738
7.0,3.0,50.00622,15567.3,-857.903,77.84015,-27144.1,0.00032,0.00034,50.04068,223.937,,0.0,-0.00147,-0.00452,22.88347,29.62703,,,,,,4.335,0.000218263,101740,101740,101606,5.1237e+17,0.12555
7.0,3.0,50.00631,15567.6,-857.904,77.842,-27144.134,5e-05,0.00023,50.04053,223.557,,0.0,-0.0015,-0.0045,22.88362,29.62713,,,,,,4.59,0.000217318,101300,101300,101458,5.4251e+17,0.110504
7.0,3.0,50.00489,15567.9,-857.904,77.84085,-27144.1,0.00022,-0.00026,50.0384,222.452,,0.0,-0.00152,-0.00448,22.88348,29.62571,,,,,,4.845,0.000217709,101482,101482,101317,5.72649e+17,0.116731
7.0,3.0,50.00588,15568.1,-857.903,77.842,-27144.136,0.00018,2e-05,50.03955,222.697,,0.0,-0.0015,-0.00453,22.88345,29.6267,,,,,,5.1,0.000216886,101098,101098,101184,6.02789e+17,0.103609
7.0,3.0,50.00445,15568.4,-857.904,77.841,-27144.1,-0.00011,-0.00012,50.0374,221.5748,,0.0,-0.00145,-0.00452,22.88368,29.62527,,,,,,5.355,0.000216893,101101,101101,101057,6.32928e+17,0.103719
7.0,3.0,50.00505,15568.6,-857.904,77.841,-27144.134,0.00018,-7e-05,50.03809,221.727,,0.0,-0.00149,-0.00453,22.88355,29.62586,,,,,,5.61,0.000216453,100897,100897,100935,6.63068e+17,0.096717
7.0,3.0,50.00454,15568.9,-857.904,77.841,-27144.1,-0.00056,0.00069,50.03713,221.017,,0.0,-0.00154,-0.00454,22.88371,29.62536,,,,,,5.865,0.000216149,100755,100755,100819,6.93207e+17,0.0918727
7.0,3.0,50.004,15569.1,-857.904,77.84,-27144.1,7e-05,0.00052,50.03635,220.655,,0.0,-0.00155,-0.00451,22.88368,29.62482,,,,,,6.12,0.000216285,100818,100818,100708,7.23347e+17,0.0940417
7.0,3.0,50.00471,15569.4,-857.904,77.84085,-27144.135,-0.0001,0.00041,50.03704,220.615,,0.0,-0.0015,-0.00452,22.88365,29.62552,,,,,,6.375,0.000215555,100478,100478,100601,7.53486e+17,0.0824085
7.0,3.0,50.00352,15569.6,-857.904,77.841,-27144.135,-0.00027,0.0001,50.03529,219.755,,0.0,-0.00151,-0.00453,22.88358,29.62433,,,,,,6.63,0.000215844,100613,100613,100499,7.83625e+17,0.0870133
7.0,3.0,50.00466,15569.9,-857.904,77.841,-27144.134,-0.00017,0.00038,50.03669,220.151,,0.0,-0.00147,-0.00447,22.88368,29.62547,,,,,,6.885,0.000215248,100335,100335,100401,8.13765e+17,0.077513
7.0,3.0,50.0033,15570.1,-857.904,77.841,-27144.136,0.00021,-0.00033,50.0347,219.18,,0.0,-0.00151,-0.0045,22.88372,29.62411,,,,,,7.14,0.000215245,100333,100333,100308,8.43904e+17,0.0774602
7.0,3.0,50.00408,15570.4,-857.904,77.84085,-27144.1,0.00014,0.00018,50.03569,219.508,,0.0,-0.0015,-0.0045,22.88375,29.62489,,,,,,7.395,0.000215172,100299,100299,100218,8.74044e+17,0.0762939
7.0,3.0,50.00324,15570.7,-857.904,77.841,-27144.136,5e-05,-9e-05,50.03436,218.733,,0.0,-0.00149,-0.00448,22.8838,29.62406,,,,,,7.65,0.000214542,100005,100005,100131,9.04183e+17,0.0662518
7.0,3.0,50.00372,15570.9,-857.904,77.84015,-27144.1,5e-05,0.00019,50.0349,218.831,,0.0,-0.00146,-0.00455,22.88391,29.62453,,,,,,7.905,0.000214892,100169,100169,100049,9.34323e+17,0.0718363
7.0,3.0,50.00378,15571.2,-857.904,77.84,-27144.136,-0.0003,0.0004,50.03484,218.639,,0.0,-0.00152,-0.00451,22.88402,29.6246,,,,,,8.16,0.000214219,99855,99855,99969.1,9.64462e+17,0.0611095
7.0,3.0,50.00286,15571.4,-857.903,77.8409,-27144.1,-0.00032,0.00017,50.03353,218.036,,0.0,-0.00145,-0.00462,22.88376,29.62367,,,,,,8.415,0.00021452,99995.5,99995.5,99892.9,9.94601e+17,0.0659132
7.0,3.0,50.00403,15571.7,-857.904,77.841,-27144.134,-0.00014,-0.0,50.03498,218.474,,0.0,-0.00148,-0.00458,22.88399,29.62485,,,,,,8.67,0.000214069,99785,99785,99819.7,1.02474e+18,0.0587173
7.0,3.0,50.00285,15571.9,-857.9039,77.841,-27144.1,-0.00024,-8e-05,50.03323,217.581,,0.0,-0.00144,-0.00451,22.8842,29.62367,,,,,,8.925,0.0002139726,99740.2,99740.2,99749.5,1.05488e+18,0.0571857
7.0,3.0,50.0035,15572.2,-857.904,77.84,-27144.135,6e-05,0.0001,50.03406,217.875,,0.0,-0.00147,-0.00451,22.88395,29.62432,,,,,,9.18,0.000213888,99700.7,99700.7,99682.1,1.08502e+18,0.0558356
7.0,3.0,50.00349,15572.4,-857.905,77.8409,-27144.134,-0.00011,-6e-05,50.03382,217.506,,0.0,-0.00148,-0.00456,22.88395,29.62431,,,,,,9.435,0.00021341,99478,99478,99617.4,1.11516e+18,0.0482231
7.0,3.0,50.00262,15572.7,-857.903,77.841,-27144.134,0.00035,-0.0,50.03264,217.032,,0.0,-0.00144,-0.00454,22.88395,29.62343,,,,,,,,,,,,
7.0,3.0,50.00373,15573,-857.904,77.84171,-27144.1,0.00016,0.00016,50.03404,217.48,,0.0,-0.00147,-0.00456,22.88409,29.62455,,,,,,,,,,,,
7.0,3.0,50.00251,15573.2,-857.904,77.84099,-27144.135,0.00014,-0.00014,50.03229,216.665,,0.0,-0.00151,-0.0046,22.88415,29.62332,,,,,,,,,,,,
7.0,3.0,50.0035,15573.5,-857.904,77.8409,-27144.135,9e-05,-0.00013,50.03356,217.085,,0.0,-0.00149,-0.00457,22.88421,29.62432,,,,,,,,,,,,
7.0,3.0,50.00277,15573.7,-857.903,77.841,-27144.136,-0.00024,-0.00011,50.03236,216.361,,0.0,-0.0015,-0.00462,22.88426,29.62358,,,,,,,,,,,,
7.0,3.0,50.00325,15574,-857.904,77.84,-27144.1,-0.00017,7e-05,50.03304,216.66,,0.0,-0.00146,-0.00455,22.88434,29.62407,,,,,,,,,,,,
7.0,3.0,50.0029,15574.2,-857.903,77.84199,-27144.134,0.00019,-0.00036,50.03239,216.205,,0.0,-0.00148,-0.00453,22.8841,29.62371,,,,,,,,,,,,
7.0,3.0,50.00266,15574.5,-857.9041,77.83915,-27144.134,-0.00016,0.00039,50.03204,216.032,,0.0,-0.00155,-0.00455,22.88435,29.62348,,,,,,,,,,,,
7.0,3.0,50.00351,15574.7,-857.904,77.841,-27144.134,-0.00049,0.00034,50.03306,216.289,,0.0,-0.00151,-0.00455,22.88431,29.62433,,,,,,,,,,,,
7.0,3.0,50.0023,15575,-857.904,77.84079,-27144.1,-6e-05,0.00017,50.03138,215.557,,0.0,-0.00146,-0.00452,22.88418,29.62312,,,,,,,,,,,,
7.0,4.0,45.6668,15575.2,-857.904,77.84,-27144.134,0.0,0.00047,45.60387,72.58822,,0.0,-0.00153,-0.00448,22.88443,25.28762,,,,,,,,,,,,
7.0,4.0,39.02636,15575.5,-857.903,77.841,-27144.134,6e-05,0.00012,38.93832,33.57005,,0.0,-0.00142,-0.00449,22.88427,18.64718,,,,,,,,,,,,
7.0,4.0,32.46706,15575.8,-857.904,77.841,-27144.135,7e-05,0.00048,32.36534,12.31678,,0.0,-0.00149,-0.00451,22.8845,12.08787,,,,,,,,,,,,
7.0,4.0,25.96592,15576,-857.904,77.84071,-27144.1,-0.00029,0.00053,25.8556,-1.05126,,0.0,-0.00145,-0.00452,22.88433,5.58674,,,,,,,,,,,,
7.0,4.0,19.49643,15576.3,-857.904,77.841,-27144.134,-8e-05,7e-05,19.38568,-1.72997,,0.0,-0.00145,-0.00453,22.88441,-0.88275,,,,,,,,,,,,
7.0,4.0,13.04938,15576.5,-857.905,77.84,-27144.133,1e-05,0.00059,12.93819,-2.40208,,0.0,-0.00147,-0.00453,22.8846,-7.3298,,,,,,,,,,,,
7.0,4.0,6.61932,15576.8,-857.904,77.84,-27144.133,-0.00053,-6e-05,6.5077,-3.07857,,0.0,-0.00144,-0.00456,22.88427,-13.75986,,,,,,,,,,,,
7.0,4.0,0.4239,15577,-857.903,77.8401,-27144.1,-0.00018,0.00043,0.31188,-3.69433,,0.0,-0.00152,-0.00453,22.88448,-19.95528,,,,,,,,,,,,
7.0,4.0,0.2108,15577.1,-857.904,77.84015,-27144.134,-0.00025,-8e-05,0.09877,-3.71356,,0.0,-0.00151,-0.00451,22.88451,-20.16838,,,,,,,,,,,,